# GMOS-S transmission curve for z'
# Columns are (1) wavelength in nm, (2) transmission.
# Data are from scans of the delivered filters for GMOS-S
# Scanned by Tomislav Vucina, September 30, 2005
# Table: GMOS_filter.xls
# Start wavelength points are set to 0.00 for extrapolation.
# Author: Rodrigo Carrasco
# Created: October 03, 2005
#
# Effective wavelength
# 925.0
# lambda z_G0328
#
  805.0  0.000
  805.2  0.000
  805.4  0.000
  805.6  0.000
  805.8  0.001
  806.0  0.001
  806.2  0.001
  806.4  0.001
  806.6  0.002
  806.8  0.002
  807.0  0.002
  807.2  0.002
  807.4  0.002
  807.6  0.002
  807.8  0.002
  808.0  0.002
  808.2  0.002
  808.4  0.002
  808.6  0.002
  808.8  0.002
  809.0  0.002
  809.2  0.002
  809.4  0.002
  809.6  0.002
  809.8  0.002
  810.0  0.002
  810.2  0.002
  810.4  0.002
  810.6  0.002
  810.8  0.002
  811.0  0.002
  811.2  0.002
  811.4  0.003
  811.6  0.003
  811.8  0.003
  812.0  0.003
  812.2  0.003
  812.4  0.003
  812.6  0.003
  812.8  0.003
  813.0  0.003
  813.2  0.003
  813.4  0.003
  813.6  0.003
  813.8  0.003
  814.0  0.003
  814.2  0.003
  814.4  0.003
  814.6  0.004
  814.8  0.004
  815.0  0.004
  815.2  0.004
  815.4  0.004
  815.6  0.004
  815.8  0.004
  816.0  0.004
  816.2  0.004
  816.4  0.004
  816.6  0.005
  816.8  0.005
  817.0  0.005
  817.2  0.005
  817.4  0.005
  817.6  0.005
  817.8  0.005
  818.0  0.005
  818.2  0.006
  818.4  0.006
  818.6  0.006
  818.8  0.006
  819.0  0.006
  819.2  0.006
  819.4  0.007
  819.6  0.007
  819.8  0.007
  820.0  0.007
  820.2  0.007
  820.4  0.007
  820.6  0.008
  820.8  0.008
  821.0  0.008
  821.2  0.008
  821.4  0.009
  821.6  0.009
  821.8  0.009
  822.0  0.009
  822.2  0.009
  822.4  0.010
  822.6  0.010
  822.8  0.010
  823.0  0.011
  823.2  0.011
  823.4  0.011
  823.6  0.011
  823.8  0.012
  824.0  0.012
  824.2  0.013
  824.4  0.013
  824.6  0.013
  824.8  0.014
  825.0  0.014
  825.2  0.014
  825.4  0.015
  825.6  0.015
  825.8  0.016
  826.0  0.016
  826.2  0.017
  826.4  0.018
  826.6  0.018
  826.8  0.019
  827.0  0.019
  827.2  0.020
  827.4  0.020
  827.6  0.021
  827.8  0.021
  828.0  0.022
  828.2  0.023
  828.4  0.024
  828.6  0.025
  828.8  0.025
  829.0  0.026
  829.2  0.027
  829.4  0.028
  829.6  0.029
  829.8  0.030
  830.0  0.031
  830.2  0.032
  830.4  0.033
  830.6  0.034
  830.8  0.035
  831.0  0.036
  831.2  0.037
  831.4  0.039
  831.6  0.040
  831.8  0.041
  832.0  0.043
  832.2  0.044
  832.4  0.046
  832.6  0.047
  832.8  0.049
  833.0  0.051
  833.2  0.052
  833.4  0.054
  833.6  0.056
  833.8  0.058
  834.0  0.060
  834.2  0.062
  834.4  0.064
  834.6  0.067
  834.8  0.069
  835.0  0.072
  835.2  0.074
  835.4  0.077
  835.6  0.080
  835.8  0.083
  836.0  0.085
  836.2  0.088
  836.4  0.091
  836.6  0.095
  836.8  0.099
  837.0  0.102
  837.2  0.106
  837.4  0.109
  837.6  0.114
  837.8  0.118
  838.0  0.122
  838.2  0.126
  838.4  0.132
  838.6  0.137
  838.8  0.142
  839.0  0.147
  839.2  0.153
  839.4  0.158
  839.6  0.164
  839.8  0.170
  840.0  0.176
  840.2  0.182
  840.4  0.189
  840.6  0.196
  840.8  0.204
  841.0  0.211
  841.2  0.218
  841.4  0.226
  841.6  0.234
  841.8  0.243
  842.0  0.252
  842.2  0.261
  842.4  0.271
  842.6  0.280
  842.8  0.289
  843.0  0.300
  843.2  0.310
  843.4  0.321
  843.6  0.332
  843.8  0.343
  844.0  0.354
  844.2  0.366
  844.4  0.378
  844.6  0.391
  844.8  0.403
  845.0  0.416
  845.2  0.428
  845.4  0.441
  845.6  0.455
  845.8  0.471
  846.0  0.484
  846.2  0.498
  846.4  0.512
  846.6  0.526
  846.8  0.540
  847.0  0.555
  847.2  0.569
  847.4  0.584
  847.6  0.599
  847.8  0.612
  848.0  0.626
  848.2  0.642
  848.4  0.657
  848.6  0.671
  848.8  0.683
  849.0  0.698
  849.2  0.711
  849.4  0.725
  849.6  0.738
  849.8  0.752
  850.0  0.729
  850.2  0.736
  850.4  0.744
  850.6  0.751
  850.8  0.759
  851.0  0.766
  851.2  0.772
  851.4  0.778
  851.6  0.787
  851.8  0.793
  852.0  0.800
  852.2  0.806
  852.4  0.813
  852.6  0.819
  852.8  0.825
  853.0  0.831
  853.2  0.837
  853.4  0.842
  853.6  0.848
  853.8  0.853
  854.0  0.859
  854.2  0.863
  854.4  0.869
  854.6  0.873
  854.8  0.878
  855.0  0.883
  855.2  0.887
  855.4  0.892
  855.6  0.895
  855.8  0.899
  856.0  0.903
  856.2  0.907
  856.4  0.910
  856.6  0.914
  856.8  0.916
  857.0  0.919
  857.2  0.923
  857.4  0.925
  857.6  0.928
  857.8  0.931
  858.0  0.933
  858.2  0.935
  858.4  0.938
  858.6  0.940
  858.8  0.942
  859.0  0.943
  859.2  0.945
  859.4  0.947
  859.6  0.948
  859.8  0.949
  860.0  0.951
  860.2  0.952
  860.4  0.953
  860.6  0.954
  860.8  0.955
  861.0  0.956
  861.2  0.956
  861.4  0.957
  861.6  0.958
  861.8  0.958
  862.0  0.959
  862.2  0.959
  862.4  0.959
  862.6  0.960
  862.8  0.960
  863.0  0.960
  863.2  0.960
  863.4  0.960
  863.6  0.960
  863.8  0.960
  864.0  0.960
  864.2  0.961
  864.4  0.960
  864.6  0.960
  864.8  0.960
  865.0  0.960
  865.2  0.960
  865.4  0.960
  865.6  0.960
  865.8  0.959
  866.0  0.959
  866.2  0.959
  866.4  0.959
  866.6  0.959
  866.8  0.959
  867.0  0.958
  867.2  0.958
  867.4  0.958
  867.6  0.958
  867.8  0.958
  868.0  0.958
  868.2  0.958
  868.4  0.958
  868.6  0.957
  868.8  0.958
  869.0  0.957
  869.2  0.957
  869.4  0.957
  869.6  0.957
  869.8  0.957
  870.0  0.957
  870.2  0.957
  870.4  0.957
  870.6  0.957
  870.8  0.956
  871.0  0.957
  871.2  0.957
  871.4  0.957
  871.6  0.956
  871.8  0.957
  872.0  0.957
  872.2  0.957
  872.4  0.957
  872.6  0.957
  872.8  0.957
  873.0  0.957
  873.2  0.957
  873.4  0.957
  873.6  0.957
  873.8  0.958
  874.0  0.958
  874.2  0.958
  874.4  0.958
  874.6  0.958
  874.8  0.958
  875.0  0.958
  875.2  0.959
  875.4  0.959
  875.6  0.959
  875.8  0.959
  876.0  0.960
  876.2  0.960
  876.4  0.960
  876.6  0.960
  876.8  0.960
  877.0  0.960
  877.2  0.961
  877.4  0.961
  877.6  0.961
  877.8  0.962
  878.0  0.961
  878.2  0.962
  878.4  0.962
  878.6  0.962
  878.8  0.962
  879.0  0.962
  879.2  0.962
  879.4  0.963
  879.6  0.963
  879.8  0.963
  880.0  0.964
  880.2  0.964
  880.4  0.964
  880.6  0.964
  880.8  0.964
  881.0  0.964
  881.2  0.965
  881.4  0.965
  881.6  0.965
  881.8  0.965
  882.0  0.965
  882.2  0.965
  882.4  0.965
  882.6  0.966
  882.8  0.966
  883.0  0.966
  883.2  0.966
  883.4  0.966
  883.6  0.966
  883.8  0.967
  884.0  0.967
  884.2  0.967
  884.4  0.967
  884.6  0.967
  884.8  0.967
  885.0  0.968
  885.2  0.967
  885.4  0.968
  885.6  0.968
  885.8  0.968
  886.0  0.968
  886.2  0.968
  886.4  0.969
  886.6  0.968
  886.8  0.968
  887.0  0.968
  887.2  0.969
  887.4  0.969
  887.6  0.969
  887.8  0.969
  888.0  0.969
  888.2  0.969
  888.4  0.969
  888.6  0.969
  888.8  0.969
  889.0  0.969
  889.2  0.969
  889.4  0.969
  889.6  0.969
  889.8  0.969
  890.0  0.970
  890.2  0.969
  890.4  0.970
  890.6  0.969
  890.8  0.970
  891.0  0.970
  891.2  0.970
  891.4  0.970
  891.6  0.970
  891.8  0.969
  892.0  0.970
  892.2  0.970
  892.4  0.970
  892.6  0.970
  892.8  0.970
  893.0  0.970
  893.2  0.970
  893.4  0.970
  893.6  0.970
  893.8  0.970
  894.0  0.970
  894.2  0.970
  894.4  0.970
  894.6  0.970
  894.8  0.970
  895.0  0.970
  895.2  0.970
  895.4  0.970
  895.6  0.970
  895.8  0.970
  896.0  0.970
  896.2  0.970
  896.4  0.970
  896.6  0.970
  896.8  0.970
  897.0  0.970
  897.2  0.970
  897.4  0.970
  897.6  0.970
  897.8  0.970
  898.0  0.970
  898.2  0.970
  898.4  0.970
  898.6  0.970
  898.8  0.970
  899.0  0.969
  899.2  0.970
  899.4  0.969
  899.6  0.970
  899.8  0.970
  900.0  0.970
  900.2  0.970
  900.4  0.970
  900.6  0.970
  900.8  0.970
  901.0  0.970
  901.2  0.970
  901.4  0.969
  901.6  0.969
  901.8  0.970
  902.0  0.969
  902.2  0.970
  902.4  0.970
  902.6  0.969
  902.8  0.969
  903.0  0.969
  903.2  0.969
  903.4  0.969
  903.6  0.970
  903.8  0.969
  904.0  0.969
  904.2  0.969
  904.4  0.969
  904.6  0.969
  904.8  0.969
  905.0  0.969
  905.2  0.969
  905.4  0.969
  905.6  0.969
  905.8  0.969
  906.0  0.969
  906.2  0.969
  906.4  0.969
  906.6  0.969
  906.8  0.969
  907.0  0.969
  907.2  0.969
  907.4  0.969
  907.6  0.969
  907.8  0.969
  908.0  0.969
  908.2  0.969
  908.4  0.969
  908.6  0.969
  908.8  0.969
  909.0  0.969
  909.2  0.969
  909.4  0.969
  909.6  0.969
  909.8  0.969
  910.0  0.969
  910.2  0.969
  910.4  0.969
  910.6  0.968
  910.8  0.969
  911.0  0.969
  911.2  0.968
  911.4  0.969
  911.6  0.969
  911.8  0.969
  912.0  0.969
  912.2  0.969
  912.4  0.969
  912.6  0.969
  912.8  0.968
  913.0  0.969
  913.2  0.969
  913.4  0.969
  913.6  0.969
  913.8  0.969
  914.0  0.969
  914.2  0.968
  914.4  0.968
  914.6  0.968
  914.8  0.968
  915.0  0.968
  915.2  0.968
  915.4  0.969
  915.6  0.969
  915.8  0.969
  916.0  0.969
  916.2  0.969
  916.4  0.969
  916.6  0.969
  916.8  0.969
  917.0  0.969
  917.2  0.969
  917.4  0.968
  917.6  0.968
  917.8  0.969
  918.0  0.969
  918.2  0.969
  918.4  0.969
  918.6  0.969
  918.8  0.969
  919.0  0.969
  919.2  0.969
  919.4  0.969
  919.6  0.969
  919.8  0.969
  920.0  0.969
  920.2  0.969
  920.4  0.969
  920.6  0.969
  920.8  0.969
  921.0  0.969
  921.2  0.969
  921.4  0.969
  921.6  0.969
  921.8  0.969
  922.0  0.969
  922.2  0.969
  922.4  0.969
  922.6  0.969
  922.8  0.969
  923.0  0.969
  923.2  0.969
  923.4  0.969
  923.6  0.970
  923.8  0.969
  924.0  0.970
  924.2  0.969
  924.4  0.970
  924.6  0.969
  924.8  0.970
  925.0  0.970
  925.2  0.970
  925.4  0.970
  925.6  0.970
  925.8  0.970
  926.0  0.970
  926.2  0.970
  926.4  0.970
  926.6  0.970
  926.8  0.970
  927.0  0.970
  927.2  0.970
  927.4  0.970
  927.6  0.970
  927.8  0.971
  928.0  0.970
  928.2  0.971
  928.4  0.970
  928.6  0.971
  928.8  0.970
  929.0  0.971
  929.2  0.971
  929.4  0.971
  929.6  0.971
  929.8  0.971
  930.0  0.971
  930.2  0.971
  930.4  0.972
  930.6  0.971
  930.8  0.972
  931.0  0.971
  931.2  0.972
  931.4  0.972
  931.6  0.972
  931.8  0.972
  932.0  0.972
  932.2  0.972
  932.4  0.972
  932.6  0.972
  932.8  0.972
  933.0  0.972
  933.2  0.973
  933.4  0.973
  933.6  0.973
  933.8  0.972
  934.0  0.973
  934.2  0.973
  934.4  0.973
  934.6  0.973
  934.8  0.973
  935.0  0.973
  935.2  0.973
  935.4  0.973
  935.6  0.973
  935.8  0.973
  936.0  0.973
  936.2  0.974
  936.4  0.973
  936.6  0.973
  936.8  0.973
  937.0  0.974
  937.2  0.974
  937.4  0.974
  937.6  0.974
  937.8  0.974
  938.0  0.974
  938.2  0.974
  938.4  0.974
  938.6  0.974
  938.8  0.974
  939.0  0.974
  939.2  0.974
  939.4  0.974
  939.6  0.975
  939.8  0.975
  940.0  0.975
  940.2  0.974
  940.4  0.975
  940.6  0.975
  940.8  0.975
  941.0  0.975
  941.2  0.975
  941.4  0.975
  941.6  0.975
  941.8  0.975
  942.0  0.975
  942.2  0.975
  942.4  0.975
  942.6  0.975
  942.8  0.975
  943.0  0.975
  943.2  0.975
  943.4  0.975
  943.6  0.975
  943.8  0.975
  944.0  0.975
  944.2  0.975
  944.4  0.975
  944.6  0.976
  944.8  0.975
  945.0  0.975
  945.2  0.975
  945.4  0.975
  945.6  0.975
  945.8  0.976
  946.0  0.975
  946.2  0.976
  946.4  0.975
  946.6  0.975
  946.8  0.976
  947.0  0.975
  947.2  0.975
  947.4  0.976
  947.6  0.976
  947.8  0.975
  948.0  0.975
  948.2  0.975
  948.4  0.975
  948.6  0.975
  948.8  0.975
  949.0  0.975
  949.2  0.975
  949.4  0.975
  949.6  0.975
  949.8  0.975
  950.0  0.975
  950.2  0.975
  950.4  0.975
  950.6  0.975
  950.8  0.975
  951.0  0.975
  951.2  0.975
  951.4  0.975
  951.6  0.975
  951.8  0.975
  952.0  0.975
  952.2  0.975
  952.4  0.975
  952.6  0.975
  952.8  0.975
  953.0  0.975
  953.2  0.974
  953.4  0.975
  953.6  0.974
  953.8  0.975
  954.0  0.974
  954.2  0.975
  954.4  0.974
  954.6  0.974
  954.8  0.974
  955.0  0.974
  955.2  0.974
  955.4  0.974
  955.6  0.974
  955.8  0.973
  956.0  0.973
  956.2  0.973
  956.4  0.973
  956.6  0.973
  956.8  0.973
  957.0  0.973
  957.2  0.973
  957.4  0.973
  957.6  0.973
  957.8  0.973
  958.0  0.973
  958.2  0.972
  958.4  0.972
  958.6  0.972
  958.8  0.972
  959.0  0.972
  959.2  0.972
  959.4  0.972
  959.6  0.971
  959.8  0.971
  960.0  0.971
  960.2  0.972
  960.4  0.971
  960.6  0.971
  960.8  0.971
  961.0  0.971
  961.2  0.970
  961.4  0.970
  961.6  0.970
  961.8  0.971
  962.0  0.970
  962.2  0.970
  962.4  0.970
  962.6  0.970
  962.8  0.969
  963.0  0.970
  963.2  0.969
  963.4  0.969
  963.6  0.969
  963.8  0.969
  964.0  0.969
  964.2  0.969
  964.4  0.969
  964.6  0.968
  964.8  0.968
  965.0  0.968
  965.2  0.968
  965.4  0.968
  965.6  0.968
  965.8  0.968
  966.0  0.968
  966.2  0.968
  966.4  0.967
  966.6  0.967
  966.8  0.967
  967.0  0.967
  967.2  0.967
  967.4  0.967
  967.6  0.967
  967.8  0.967
  968.0  0.966
  968.2  0.966
  968.4  0.966
  968.6  0.966
  968.8  0.966
  969.0  0.966
  969.2  0.966
  969.4  0.966
  969.6  0.966
  969.8  0.965
  970.0  0.965
  970.2  0.965
  970.4  0.965
  970.6  0.965
  970.8  0.965
  971.0  0.965
  971.2  0.965
  971.4  0.965
  971.6  0.964
  971.8  0.964
  972.0  0.964
  972.2  0.964
  972.4  0.964
  972.6  0.964
  972.8  0.964
  973.0  0.963
  973.2  0.963
  973.4  0.963
  973.6  0.963
  973.8  0.963
  974.0  0.963
  974.2  0.963
  974.4  0.963
  974.6  0.963
  974.8  0.963
  975.0  0.962
  975.2  0.962
  975.4  0.962
  975.6  0.962
  975.8  0.962
  976.0  0.962
  976.2  0.962
  976.4  0.962
  976.6  0.962
  976.8  0.962
  977.0  0.962
  977.2  0.962
  977.4  0.962
  977.6  0.961
  977.8  0.962
  978.0  0.961
  978.2  0.961
  978.4  0.961
  978.6  0.962
  978.8  0.961
  979.0  0.961
  979.2  0.961
  979.4  0.961
  979.6  0.961
  979.8  0.961
  980.0  0.961
  980.2  0.961
  980.4  0.961
  980.6  0.961
  980.8  0.961
  981.0  0.961
  981.2  0.961
  981.4  0.960
  981.6  0.961
  981.8  0.961
  982.0  0.961
  982.2  0.960
  982.4  0.961
  982.6  0.961
  982.8  0.961
  983.0  0.960
  983.2  0.961
  983.4  0.960
  983.6  0.961
  983.8  0.960
  984.0  0.960
  984.2  0.961
  984.4  0.961
  984.6  0.961
  984.8  0.961
  985.0  0.961
  985.2  0.960
  985.4  0.961
  985.6  0.960
  985.8  0.961
  986.0  0.960
  986.2  0.961
  986.4  0.961
  986.6  0.961
  986.8  0.961
  987.0  0.961
  987.2  0.961
  987.4  0.961
  987.6  0.961
  987.8  0.961
  988.0  0.961
  988.2  0.961
  988.4  0.961
  988.6  0.961
  988.8  0.961
  989.0  0.961
  989.2  0.961
  989.4  0.961
  989.6  0.961
  989.8  0.961
  990.0  0.961
  990.2  0.961
  990.4  0.961
  990.6  0.961
  990.8  0.961
  991.0  0.961
  991.2  0.962
  991.4  0.962
  991.6  0.962
  991.8  0.962
  992.0  0.962
  992.2  0.962
  992.4  0.962
  992.6  0.962
  992.8  0.962
  993.0  0.962
  993.2  0.962
  993.4  0.962
  993.6  0.962
  993.8  0.962
  994.0  0.962
  994.2  0.963
  994.4  0.963
  994.6  0.963
  994.8  0.963
  995.0  0.963
  995.2  0.963
  995.4  0.963
  995.6  0.963
  995.8  0.963
  996.0  0.963
  996.2  0.963
  996.4  0.963
  996.6  0.963
  996.8  0.963
  997.0  0.964
  997.2  0.964
  997.4  0.964
  997.6  0.964
  997.8  0.963
  998.0  0.964
  998.2  0.964
  998.4  0.964
  998.6  0.964
  998.8  0.964
  999.0  0.964
  999.2  0.964
  999.4  0.965
  999.6  0.965
  999.8  0.965
 1000.0  0.965
