# GMOS-S transmission curve for i'
# Columns are (1) wavelength in nm, (2) transmission.
# Data are from scans of the delivered filters for GMOS-S
# Scanned by Tomislav Vucina, September 30, 2005
# Table: GMOS_filter.xls
# Start wavelength points are set to 0.00 for extrapolation.
# Author: Rodrigo Carrasco
# Created: October 03, 2005
#
# Effective wavelength
# 780.0
# lambda i_G0327
#
  683.0  0.000
  683.2  0.000
  683.4  0.000
  683.6  0.001
  683.8  0.001
  684.0  0.001
  684.2  0.001
  684.4  0.001
  684.6  0.001
  684.8  0.002
  685.0  0.002
  685.2  0.002
  685.4  0.002
  685.6  0.003
  685.8  0.003
  686.0  0.003
  686.2  0.004
  686.4  0.004
  686.6  0.005
  686.8  0.005
  687.0  0.006
  687.2  0.006
  687.4  0.007
  687.6  0.007
  687.8  0.008
  688.0  0.009
  688.2  0.010
  688.4  0.011
  688.6  0.012
  688.8  0.013
  689.0  0.014
  689.2  0.016
  689.4  0.017
  689.6  0.018
  689.8  0.020
  690.0  0.022
  690.2  0.023
  690.4  0.025
  690.6  0.027
  690.8  0.029
  691.0  0.031
  691.2  0.034
  691.4  0.036
  691.6  0.039
  691.8  0.041
  692.0  0.044
  692.2  0.047
  692.4  0.050
  692.6  0.053
  692.8  0.057
  693.0  0.060
  693.2  0.064
  693.4  0.067
  693.6  0.071
  693.8  0.075
  694.0  0.080
  694.2  0.084
  694.4  0.088
  694.6  0.093
  694.8  0.098
  695.0  0.102
  695.2  0.107
  695.4  0.113
  695.6  0.118
  695.8  0.123
  696.0  0.129
  696.2  0.135
  696.4  0.140
  696.6  0.146
  696.8  0.152
  697.0  0.158
  697.2  0.164
  697.4  0.171
  697.6  0.177
  697.8  0.184
  698.0  0.190
  698.2  0.197
  698.4  0.204
  698.6  0.211
  698.8  0.218
  699.0  0.225
  699.2  0.232
  699.4  0.239
  699.6  0.246
  699.8  0.254
  700.0  0.261
  700.2  0.269
  700.4  0.276
  700.6  0.284
  700.8  0.291
  701.0  0.298
  701.2  0.306
  701.4  0.314
  701.6  0.322
  701.8  0.330
  702.0  0.338
  702.2  0.345
  702.4  0.353
  702.6  0.360
  702.8  0.369
  703.0  0.376
  703.2  0.384
  703.4  0.392
  703.6  0.399
  703.8  0.407
  704.0  0.415
  704.2  0.423
  704.4  0.430
  704.6  0.438
  704.8  0.445
  705.0  0.453
  705.2  0.460
  705.4  0.467
  705.6  0.475
  705.8  0.483
  706.0  0.490
  706.2  0.497
  706.4  0.504
  706.6  0.511
  706.8  0.518
  707.0  0.525
  707.2  0.532
  707.4  0.539
  707.6  0.546
  707.8  0.553
  708.0  0.559
  708.2  0.566
  708.4  0.573
  708.6  0.579
  708.8  0.586
  709.0  0.592
  709.2  0.598
  709.4  0.605
  709.6  0.611
  709.8  0.617
  710.0  0.623
  710.2  0.629
  710.4  0.635
  710.6  0.640
  710.8  0.646
  711.0  0.651
  711.2  0.657
  711.4  0.662
  711.6  0.668
  711.8  0.673
  712.0  0.678
  712.2  0.683
  712.4  0.687
  712.6  0.693
  712.8  0.698
  713.0  0.702
  713.2  0.707
  713.4  0.712
  713.6  0.717
  713.8  0.720
  714.0  0.725
  714.2  0.728
  714.4  0.733
  714.6  0.737
  714.8  0.741
  715.0  0.745
  715.2  0.749
  715.4  0.752
  715.6  0.756
  715.8  0.760
  716.0  0.764
  716.2  0.767
  716.4  0.771
  716.6  0.774
  716.8  0.777
  717.0  0.780
  717.2  0.784
  717.4  0.787
  717.6  0.790
  717.8  0.793
  718.0  0.796
  718.2  0.799
  718.4  0.801
  718.6  0.804
  718.8  0.807
  719.0  0.810
  719.2  0.812
  719.4  0.815
  719.6  0.817
  719.8  0.819
  720.0  0.823
  720.2  0.825
  720.4  0.827
  720.6  0.830
  720.8  0.832
  721.0  0.834
  721.2  0.837
  721.4  0.838
  721.6  0.841
  721.8  0.843
  722.0  0.845
  722.2  0.848
  722.4  0.849
  722.6  0.851
  722.8  0.853
  723.0  0.854
  723.2  0.857
  723.4  0.858
  723.6  0.860
  723.8  0.862
  724.0  0.865
  724.2  0.866
  724.4  0.867
  724.6  0.869
  724.8  0.871
  725.0  0.873
  725.2  0.874
  725.4  0.875
  725.6  0.877
  725.8  0.878
  726.0  0.880
  726.2  0.882
  726.4  0.883
  726.6  0.885
  726.8  0.887
  727.0  0.887
  727.2  0.889
  727.4  0.890
  727.6  0.892
  727.8  0.893
  728.0  0.894
  728.2  0.896
  728.4  0.897
  728.6  0.899
  728.8  0.900
  729.0  0.900
  729.2  0.902
  729.4  0.903
  729.6  0.905
  729.8  0.906
  730.0  0.907
  730.2  0.908
  730.4  0.909
  730.6  0.911
  730.8  0.912
  731.0  0.913
  731.2  0.914
  731.4  0.914
  731.6  0.916
  731.8  0.916
  732.0  0.917
  732.2  0.918
  732.4  0.920
  732.6  0.920
  732.8  0.922
  733.0  0.922
  733.2  0.922
  733.4  0.924
  733.6  0.924
  733.8  0.926
  734.0  0.927
  734.2  0.927
  734.4  0.928
  734.6  0.928
  734.8  0.930
  735.0  0.929
  735.2  0.931
  735.4  0.931
  735.6  0.932
  735.8  0.933
  736.0  0.933
  736.2  0.935
  736.4  0.935
  736.6  0.935
  736.8  0.936
  737.0  0.936
  737.2  0.937
  737.4  0.937
  737.6  0.938
  737.8  0.938
  738.0  0.939
  738.2  0.939
  738.4  0.940
  738.6  0.940
  738.8  0.941
  739.0  0.941
  739.2  0.941
  739.4  0.942
  739.6  0.942
  739.8  0.943
  740.0  0.942
  740.2  0.943
  740.4  0.943
  740.6  0.944
  740.8  0.944
  741.0  0.945
  741.2  0.945
  741.4  0.946
  741.6  0.946
  741.8  0.946
  742.0  0.946
  742.2  0.947
  742.4  0.947
  742.6  0.947
  742.8  0.947
  743.0  0.948
  743.2  0.948
  743.4  0.948
  743.6  0.949
  743.8  0.949
  744.0  0.949
  744.2  0.950
  744.4  0.950
  744.6  0.950
  744.8  0.950
  745.0  0.951
  745.2  0.951
  745.4  0.951
  745.6  0.951
  745.8  0.952
  746.0  0.952
  746.2  0.952
  746.4  0.952
  746.6  0.953
  746.8  0.952
  747.0  0.953
  747.2  0.953
  747.4  0.954
  747.6  0.953
  747.8  0.953
  748.0  0.954
  748.2  0.954
  748.4  0.955
  748.6  0.955
  748.8  0.955
  749.0  0.956
  749.2  0.954
  749.4  0.956
  749.6  0.956
  749.8  0.956
  750.0  0.957
  750.2  0.956
  750.4  0.957
  750.6  0.957
  750.8  0.957
  751.0  0.957
  751.2  0.958
  751.4  0.958
  751.6  0.958
  751.8  0.958
  752.0  0.959
  752.2  0.959
  752.4  0.959
  752.6  0.960
  752.8  0.961
  753.0  0.961
  753.2  0.961
  753.4  0.961
  753.6  0.961
  753.8  0.962
  754.0  0.961
  754.2  0.962
  754.4  0.961
  754.6  0.962
  754.8  0.962
  755.0  0.961
  755.2  0.963
  755.4  0.963
  755.6  0.962
  755.8  0.963
  756.0  0.963
  756.2  0.964
  756.4  0.963
  756.6  0.963
  756.8  0.963
  757.0  0.964
  757.2  0.965
  757.4  0.964
  757.6  0.965
  757.8  0.965
  758.0  0.965
  758.2  0.964
  758.4  0.964
  758.6  0.965
  758.8  0.966
  759.0  0.965
  759.2  0.965
  759.4  0.966
  759.6  0.966
  759.8  0.963
  760.0  0.964
  760.2  0.965
  760.4  0.965
  760.6  0.965
  760.8  0.966
  761.0  0.965
  761.2  0.966
  761.4  0.965
  761.6  0.964
  761.8  0.965
  762.0  0.965
  762.2  0.966
  762.4  0.965
  762.6  0.965
  762.8  0.965
  763.0  0.964
  763.2  0.965
  763.4  0.964
  763.6  0.964
  763.8  0.965
  764.0  0.964
  764.2  0.966
  764.4  0.964
  764.6  0.963
  764.8  0.965
  765.0  0.965
  765.2  0.965
  765.4  0.965
  765.6  0.964
  765.8  0.963
  766.0  0.963
  766.2  0.963
  766.4  0.965
  766.6  0.964
  766.8  0.964
  767.0  0.964
  767.2  0.965
  767.4  0.964
  767.6  0.965
  767.8  0.964
  768.0  0.964
  768.2  0.965
  768.4  0.964
  768.6  0.963
  768.8  0.965
  769.0  0.964
  769.2  0.965
  769.4  0.964
  769.6  0.965
  769.8  0.964
  770.0  0.963
  770.2  0.964
  770.4  0.963
  770.6  0.964
  770.8  0.964
  771.0  0.964
  771.2  0.964
  771.4  0.965
  771.6  0.963
  771.8  0.964
  772.0  0.964
  772.2  0.965
  772.4  0.964
  772.6  0.964
  772.8  0.965
  773.0  0.964
  773.2  0.965
  773.4  0.965
  773.6  0.966
  773.8  0.966
  774.0  0.966
  774.2  0.966
  774.4  0.965
  774.6  0.966
  774.8  0.967
  775.0  0.965
  775.2  0.966
  775.4  0.966
  775.6  0.966
  775.8  0.967
  776.0  0.968
  776.2  0.967
  776.4  0.967
  776.6  0.967
  776.8  0.968
  777.0  0.968
  777.2  0.967
  777.4  0.968
  777.6  0.968
  777.8  0.968
  778.0  0.967
  778.2  0.969
  778.4  0.967
  778.6  0.968
  778.8  0.968
  779.0  0.968
  779.2  0.967
  779.4  0.968
  779.6  0.969
  779.8  0.968
  780.0  0.967
  780.2  0.968
  780.4  0.968
  780.6  0.968
  780.8  0.968
  781.0  0.968
  781.2  0.969
  781.4  0.968
  781.6  0.969
  781.8  0.968
  782.0  0.968
  782.2  0.968
  782.4  0.967
  782.6  0.968
  782.8  0.968
  783.0  0.966
  783.2  0.968
  783.4  0.967
  783.6  0.968
  783.8  0.967
  784.0  0.966
  784.2  0.967
  784.4  0.966
  784.6  0.966
  784.8  0.967
  785.0  0.966
  785.2  0.967
  785.4  0.966
  785.6  0.966
  785.8  0.967
  786.0  0.966
  786.2  0.966
  786.4  0.966
  786.6  0.965
  786.8  0.966
  787.0  0.966
  787.2  0.966
  787.4  0.965
  787.6  0.966
  787.8  0.965
  788.0  0.965
  788.2  0.965
  788.4  0.965
  788.6  0.965
  788.8  0.965
  789.0  0.964
  789.2  0.965
  789.4  0.965
  789.6  0.965
  789.8  0.967
  790.0  0.965
  790.2  0.965
  790.4  0.966
  790.6  0.965
  790.8  0.964
  791.0  0.964
  791.2  0.965
  791.4  0.965
  791.6  0.965
  791.8  0.966
  792.0  0.965
  792.2  0.965
  792.4  0.965
  792.6  0.964
  792.8  0.965
  793.0  0.965
  793.2  0.965
  793.4  0.965
  793.6  0.966
  793.8  0.966
  794.0  0.966
  794.2  0.966
  794.4  0.967
  794.6  0.968
  794.8  0.967
  795.0  0.967
  795.2  0.967
  795.4  0.968
  795.6  0.967
  795.8  0.967
  796.0  0.967
  796.2  0.966
  796.4  0.967
  796.6  0.968
  796.8  0.968
  797.0  0.968
  797.2  0.968
  797.4  0.968
  797.6  0.968
  797.8  0.968
  798.0  0.970
  798.2  0.970
  798.4  0.969
  798.6  0.969
  798.8  0.969
  799.0  0.969
  799.2  0.969
  799.4  0.971
  799.6  0.970
  799.8  0.970
  800.0  0.970
  800.2  0.971
  800.4  0.971
  800.6  0.972
  800.8  0.971
  801.0  0.972
  801.2  0.971
  801.4  0.970
  801.6  0.971
  801.8  0.971
  802.0  0.971
  802.2  0.972
  802.4  0.971
  802.6  0.970
  802.8  0.972
  803.0  0.972
  803.2  0.970
  803.4  0.971
  803.6  0.973
  803.8  0.971
  804.0  0.972
  804.2  0.971
  804.4  0.972
  804.6  0.972
  804.8  0.972
  805.0  0.972
  805.2  0.972
  805.4  0.972
  805.6  0.972
  805.8  0.972
  806.0  0.972
  806.2  0.973
  806.4  0.971
  806.6  0.972
  806.8  0.972
  807.0  0.971
  807.2  0.972
  807.4  0.972
  807.6  0.972
  807.8  0.973
  808.0  0.972
  808.2  0.971
  808.4  0.972
  808.6  0.971
  808.8  0.971
  809.0  0.971
  809.2  0.972
  809.4  0.972
  809.6  0.972
  809.8  0.971
  810.0  0.970
  810.2  0.972
  810.4  0.972
  810.6  0.970
  810.8  0.970
  811.0  0.972
  811.2  0.971
  811.4  0.971
  811.6  0.969
  811.8  0.970
  812.0  0.971
  812.2  0.969
  812.4  0.970
  812.6  0.970
  812.8  0.970
  813.0  0.971
  813.2  0.970
  813.4  0.972
  813.6  0.971
  813.8  0.970
  814.0  0.969
  814.2  0.970
  814.4  0.969
  814.6  0.971
  814.8  0.970
  815.0  0.969
  815.2  0.970
  815.4  0.971
  815.6  0.970
  815.8  0.970
  816.0  0.970
  816.2  0.969
  816.4  0.970
  816.6  0.971
  816.8  0.970
  817.0  0.971
  817.2  0.971
  817.4  0.970
  817.6  0.971
  817.8  0.970
  818.0  0.970
  818.2  0.971
  818.4  0.970
  818.6  0.970
  818.8  0.971
  819.0  0.967
  819.2  0.969
  819.4  0.969
  819.6  0.972
  819.8  0.970
  820.0  0.969
  820.2  0.970
  820.4  0.970
  820.6  0.969
  820.8  0.970
  821.0  0.970
  821.2  0.969
  821.4  0.970
  821.6  0.969
  821.8  0.970
  822.0  0.969
  822.2  0.969
  822.4  0.970
  822.6  0.968
  822.8  0.970
  823.0  0.968
  823.2  0.968
  823.4  0.968
  823.6  0.968
  823.8  0.968
  824.0  0.969
  824.2  0.970
  824.4  0.969
  824.6  0.968
  824.8  0.969
  825.0  0.969
  825.2  0.968
  825.4  0.969
  825.6  0.969
  825.8  0.968
  826.0  0.970
  826.2  0.970
  826.4  0.969
  826.6  0.968
  826.8  0.968
  827.0  0.968
  827.2  0.970
  827.4  0.970
  827.6  0.968
  827.8  0.968
  828.0  0.968
  828.2  0.969
  828.4  0.970
  828.6  0.968
  828.8  0.966
  829.0  0.969
  829.2  0.968
  829.4  0.967
  829.6  0.966
  829.8  0.968
  830.0  0.966
  830.2  0.967
  830.4  0.966
  830.6  0.964
  830.8  0.967
  831.0  0.963
  831.2  0.964
  831.4  0.963
  831.6  0.962
  831.8  0.961
  832.0  0.961
  832.2  0.959
  832.4  0.958
  832.6  0.957
  832.8  0.956
  833.0  0.954
  833.2  0.954
  833.4  0.949
  833.6  0.949
  833.8  0.946
  834.0  0.945
  834.2  0.942
  834.4  0.940
  834.6  0.939
  834.8  0.936
  835.0  0.932
  835.2  0.928
  835.4  0.927
  835.6  0.926
  835.8  0.920
  836.0  0.917
  836.2  0.914
  836.4  0.910
  836.6  0.907
  836.8  0.904
  837.0  0.899
  837.2  0.895
  837.4  0.891
  837.6  0.890
  837.8  0.885
  838.0  0.882
  838.2  0.877
  838.4  0.874
  838.6  0.870
  838.8  0.867
  839.0  0.863
  839.2  0.862
  839.4  0.857
  839.6  0.853
  839.8  0.849
  840.0  0.846
  840.2  0.843
  840.4  0.840
  840.6  0.838
  840.8  0.837
  841.0  0.834
  841.2  0.833
  841.4  0.831
  841.6  0.831
  841.8  0.829
  842.0  0.828
  842.2  0.830
  842.4  0.830
  842.6  0.832
  842.8  0.832
  843.0  0.835
  843.2  0.835
  843.4  0.839
  843.6  0.842
  843.8  0.844
  844.0  0.849
  844.2  0.853
  844.4  0.858
  844.6  0.864
  844.8  0.868
  845.0  0.874
  845.2  0.879
  845.4  0.886
  845.6  0.894
  845.8  0.900
  846.0  0.907
  846.2  0.912
  846.4  0.916
  846.6  0.922
  846.8  0.925
  847.0  0.927
  847.2  0.928
  847.4  0.925
  847.6  0.924
  847.8  0.917
  848.0  0.909
  848.2  0.900
  848.4  0.885
  848.6  0.867
  848.8  0.848
  849.0  0.824
  849.2  0.797
  849.4  0.769
  849.6  0.737
  849.8  0.704
  850.0  0.473
  850.2  0.463
  850.4  0.453
  850.6  0.443
  850.8  0.433
  851.0  0.423
  851.2  0.413
  851.4  0.403
  851.6  0.394
  851.8  0.383
  852.0  0.373
  852.2  0.363
  852.4  0.352
  852.6  0.342
  852.8  0.333
  853.0  0.324
  853.2  0.314
  853.4  0.304
  853.6  0.295
  853.8  0.286
  854.0  0.277
  854.2  0.269
  854.4  0.259
  854.6  0.251
  854.8  0.242
  855.0  0.234
  855.2  0.224
  855.4  0.216
  855.6  0.209
  855.8  0.201
  856.0  0.192
  856.2  0.185
  856.4  0.177
  856.6  0.171
  856.8  0.163
  857.0  0.156
  857.2  0.149
  857.4  0.142
  857.6  0.136
  857.8  0.128
  858.0  0.122
  858.2  0.117
  858.4  0.109
  858.6  0.105
  858.8  0.098
  859.0  0.094
  859.2  0.088
  859.4  0.083
  859.6  0.078
  859.8  0.074
  860.0  0.068
  860.2  0.064
  860.4  0.059
  860.6  0.055
  860.8  0.051
  861.0  0.048
  861.2  0.044
  861.4  0.040
  861.6  0.038
  861.8  0.035
  862.0  0.032
  862.2  0.029
  862.4  0.027
  862.6  0.025
  862.8  0.022
  863.0  0.020
  863.2  0.018
  863.4  0.017
  863.6  0.015
  863.8  0.014
  864.0  0.013
  864.2  0.012
  864.4  0.011
  864.6  0.010
  864.8  0.009
  865.0  0.008
  865.2  0.008
  865.4  0.007
  865.6  0.006
  865.8  0.006
  866.0  0.005
  866.2  0.005
  866.4  0.005
  866.6  0.004
  866.8  0.004
  867.0  0.004
  867.2  0.003
  867.4  0.003
  867.6  0.003
  867.8  0.003
  868.0  0.003
  868.2  0.003
  868.4  0.002
  868.6  0.002
  868.8  0.002
  869.0  0.002
  869.2  0.002
  869.4  0.002
  869.6  0.002
  869.8  0.002
  870.0  0.002
  870.2  0.001
  870.4  0.001
  870.6  0.001
  870.8  0.001
  871.0  0.001
  871.2  0.001
  871.4  0.001
  871.6  0.001
  871.8  0.001
  872.0  0.001
  872.2  0.001
  872.4  0.001
  872.6  0.001
  872.8  0.001
  873.0  0.001
  873.2  0.001
  873.4  0.001
  873.6  0.001
  873.8  0.001
  874.0  0.001
  874.2  0.001
  874.4  0.001
  874.6  0.001
  874.8  0.001
  875.0  0.001
  875.2  0.001
  875.4  0.001
  875.6  0.000
  875.8  0.000
  876.0  0.000
