# GMOS-S transmission curve for r'
# Columns are (1) wavelength in nm, (2) transmission.
# Data are from scans of the delivered filters for GMOS-S
# Scanned by Tomislav Vucina, September 30, 2005
# Table: GMOS_filter.xls
# Start wavelength points are set to 0.00 for extrapolation.
# Author: Rodrigo Carrasco
# Created: October 03, 2005
#
# Effective wavelength
# 630.0
# lambda r_G0326
#
  544.0  0.000
  544.2  0.000
  544.4  0.000
  544.6  0.001
  544.8  0.001
  545.0  0.001
  545.2  0.001
  545.4  0.001
  545.6  0.002
  545.8  0.002
  546.0  0.002
  546.2  0.003
  546.4  0.003
  546.6  0.004
  546.8  0.005
  547.0  0.006
  547.2  0.007
  547.4  0.007
  547.6  0.009
  547.8  0.010
  548.0  0.011
  548.2  0.013
  548.4  0.015
  548.6  0.017
  548.8  0.019
  549.0  0.022
  549.2  0.024
  549.4  0.027
  549.6  0.030
  549.8  0.034
  550.0  0.037
  550.2  0.041
  550.4  0.045
  550.6  0.050
  550.8  0.055
  551.0  0.060
  551.2  0.065
  551.4  0.071
  551.6  0.076
  551.8  0.082
  552.0  0.089
  552.2  0.096
  552.4  0.103
  552.6  0.110
  552.8  0.117
  553.0  0.125
  553.2  0.133
  553.4  0.141
  553.6  0.149
  553.8  0.158
  554.0  0.166
  554.2  0.175
  554.4  0.184
  554.6  0.193
  554.8  0.203
  555.0  0.212
  555.2  0.222
  555.4  0.231
  555.6  0.241
  555.8  0.251
  556.0  0.260
  556.2  0.270
  556.4  0.280
  556.6  0.290
  556.8  0.299
  557.0  0.309
  557.2  0.319
  557.4  0.329
  557.6  0.338
  557.8  0.348
  558.0  0.357
  558.2  0.367
  558.4  0.375
  558.6  0.385
  558.8  0.393
  559.0  0.402
  559.2  0.411
  559.4  0.419
  559.6  0.427
  559.8  0.435
  560.0  0.443
  560.2  0.451
  560.4  0.458
  560.6  0.465
  560.8  0.473
  561.0  0.480
  561.2  0.486
  561.4  0.493
  561.6  0.500
  561.8  0.506
  562.0  0.512
  562.2  0.518
  562.4  0.524
  562.6  0.530
  562.8  0.536
  563.0  0.541
  563.2  0.547
  563.4  0.552
  563.6  0.558
  563.8  0.564
  564.0  0.569
  564.2  0.575
  564.4  0.580
  564.6  0.586
  564.8  0.591
  565.0  0.596
  565.2  0.601
  565.4  0.608
  565.6  0.613
  565.8  0.619
  566.0  0.625
  566.2  0.630
  566.4  0.635
  566.6  0.641
  566.8  0.647
  567.0  0.653
  567.2  0.658
  567.4  0.664
  567.6  0.670
  567.8  0.676
  568.0  0.681
  568.2  0.687
  568.4  0.692
  568.6  0.697
  568.8  0.702
  569.0  0.706
  569.2  0.711
  569.4  0.716
  569.6  0.720
  569.8  0.724
  570.0  0.728
  570.2  0.732
  570.4  0.736
  570.6  0.739
  570.8  0.742
  571.0  0.745
  571.2  0.748
  571.4  0.750
  571.6  0.752
  571.8  0.754
  572.0  0.756
  572.2  0.758
  572.4  0.760
  572.6  0.761
  572.8  0.762
  573.0  0.764
  573.2  0.765
  573.4  0.766
  573.6  0.767
  573.8  0.768
  574.0  0.770
  574.2  0.771
  574.4  0.772
  574.6  0.773
  574.8  0.775
  575.0  0.777
  575.2  0.779
  575.4  0.780
  575.6  0.783
  575.8  0.785
  576.0  0.787
  576.2  0.789
  576.4  0.793
  576.6  0.795
  576.8  0.798
  577.0  0.802
  577.2  0.805
  577.4  0.809
  577.6  0.812
  577.8  0.816
  578.0  0.820
  578.2  0.824
  578.4  0.828
  578.6  0.832
  578.8  0.835
  579.0  0.840
  579.2  0.843
  579.4  0.847
  579.6  0.851
  579.8  0.854
  580.0  0.858
  580.2  0.862
  580.4  0.865
  580.6  0.868
  580.8  0.870
  581.0  0.873
  581.2  0.875
  581.4  0.877
  581.6  0.878
  581.8  0.881
  582.0  0.882
  582.2  0.883
  582.4  0.884
  582.6  0.884
  582.8  0.885
  583.0  0.884
  583.2  0.885
  583.4  0.885
  583.6  0.884
  583.8  0.884
  584.0  0.883
  584.2  0.882
  584.4  0.882
  584.6  0.881
  584.8  0.880
  585.0  0.878
  585.2  0.877
  585.4  0.876
  585.6  0.875
  585.8  0.874
  586.0  0.874
  586.2  0.874
  586.4  0.874
  586.6  0.874
  586.8  0.873
  587.0  0.873
  587.2  0.873
  587.4  0.873
  587.6  0.874
  587.8  0.875
  588.0  0.875
  588.2  0.877
  588.4  0.877
  588.6  0.879
  588.8  0.880
  589.0  0.882
  589.2  0.883
  589.4  0.884
  589.6  0.886
  589.8  0.888
  590.0  0.890
  590.2  0.892
  590.4  0.893
  590.6  0.895
  590.8  0.897
  591.0  0.899
  591.2  0.900
  591.4  0.903
  591.6  0.903
  591.8  0.905
  592.0  0.907
  592.2  0.908
  592.4  0.909
  592.6  0.911
  592.8  0.911
  593.0  0.912
  593.2  0.912
  593.4  0.913
  593.6  0.913
  593.8  0.913
  594.0  0.913
  594.2  0.913
  594.4  0.912
  594.6  0.911
  594.8  0.911
  595.0  0.910
  595.2  0.910
  595.4  0.908
  595.6  0.907
  595.8  0.906
  596.0  0.905
  596.2  0.903
  596.4  0.903
  596.6  0.901
  596.8  0.900
  597.0  0.900
  597.2  0.898
  597.4  0.897
  597.6  0.896
  597.8  0.896
  598.0  0.895
  598.2  0.895
  598.4  0.895
  598.6  0.894
  598.8  0.894
  599.0  0.894
  599.2  0.894
  599.4  0.895
  599.6  0.895
  599.8  0.895
  600.0  0.896
  600.2  0.897
  600.4  0.898
  600.6  0.899
  600.8  0.899
  601.0  0.901
  601.2  0.902
  601.4  0.904
  601.6  0.906
  601.8  0.907
  602.0  0.909
  602.2  0.911
  602.4  0.912
  602.6  0.913
  602.8  0.915
  603.0  0.916
  603.2  0.918
  603.4  0.919
  603.6  0.921
  603.8  0.922
  604.0  0.922
  604.2  0.924
  604.4  0.925
  604.6  0.926
  604.8  0.927
  605.0  0.928
  605.2  0.929
  605.4  0.929
  605.6  0.930
  605.8  0.930
  606.0  0.931
  606.2  0.931
  606.4  0.931
  606.6  0.931
  606.8  0.931
  607.0  0.931
  607.2  0.931
  607.4  0.931
  607.6  0.930
  607.8  0.930
  608.0  0.930
  608.2  0.930
  608.4  0.930
  608.6  0.929
  608.8  0.929
  609.0  0.929
  609.2  0.929
  609.4  0.928
  609.6  0.928
  609.8  0.927
  610.0  0.927
  610.2  0.927
  610.4  0.927
  610.6  0.926
  610.8  0.926
  611.0  0.925
  611.2  0.925
  611.4  0.926
  611.6  0.925
  611.8  0.924
  612.0  0.924
  612.2  0.923
  612.4  0.923
  612.6  0.922
  612.8  0.923
  613.0  0.922
  613.2  0.922
  613.4  0.920
  613.6  0.920
  613.8  0.919
  614.0  0.918
  614.2  0.917
  614.4  0.915
  614.6  0.914
  614.8  0.912
  615.0  0.911
  615.2  0.909
  615.4  0.907
  615.6  0.905
  615.8  0.903
  616.0  0.901
  616.2  0.899
  616.4  0.897
  616.6  0.895
  616.8  0.891
  617.0  0.889
  617.2  0.887
  617.4  0.885
  617.6  0.882
  617.8  0.879
  618.0  0.877
  618.2  0.874
  618.4  0.872
  618.6  0.869
  618.8  0.867
  619.0  0.864
  619.2  0.862
  619.4  0.860
  619.6  0.858
  619.8  0.857
  620.0  0.854
  620.2  0.853
  620.4  0.852
  620.6  0.850
  620.8  0.849
  621.0  0.848
  621.2  0.848
  621.4  0.847
  621.6  0.847
  621.8  0.847
  622.0  0.847
  622.2  0.847
  622.4  0.848
  622.6  0.849
  622.8  0.849
  623.0  0.850
  623.2  0.853
  623.4  0.854
  623.6  0.855
  623.8  0.858
  624.0  0.860
  624.2  0.862
  624.4  0.864
  624.6  0.867
  624.8  0.870
  625.0  0.873
  625.2  0.876
  625.4  0.878
  625.6  0.881
  625.8  0.884
  626.0  0.887
  626.2  0.890
  626.4  0.893
  626.6  0.896
  626.8  0.899
  627.0  0.901
  627.2  0.904
  627.4  0.908
  627.6  0.910
  627.8  0.913
  628.0  0.915
  628.2  0.917
  628.4  0.919
  628.6  0.919
  628.8  0.921
  629.0  0.924
  629.2  0.925
  629.4  0.927
  629.6  0.927
  629.8  0.928
  630.0  0.928
  630.2  0.929
  630.4  0.929
  630.6  0.929
  630.8  0.929
  631.0  0.929
  631.2  0.929
  631.4  0.928
  631.6  0.928
  631.8  0.927
  632.0  0.927
  632.2  0.926
  632.4  0.925
  632.6  0.924
  632.8  0.923
  633.0  0.922
  633.2  0.922
  633.4  0.921
  633.6  0.920
  633.8  0.919
  634.0  0.919
  634.2  0.918
  634.4  0.918
  634.6  0.917
  634.8  0.917
  635.0  0.916
  635.2  0.916
  635.4  0.916
  635.6  0.917
  635.8  0.917
  636.0  0.916
  636.2  0.917
  636.4  0.917
  636.6  0.918
  636.8  0.918
  637.0  0.919
  637.2  0.919
  637.4  0.920
  637.6  0.921
  637.8  0.922
  638.0  0.923
  638.2  0.924
  638.4  0.925
  638.6  0.926
  638.8  0.926
  639.0  0.927
  639.2  0.928
  639.4  0.929
  639.6  0.930
  639.8  0.930
  640.0  0.930
  640.2  0.932
  640.4  0.931
  640.6  0.932
  640.8  0.932
  641.0  0.933
  641.2  0.932
  641.4  0.932
  641.6  0.932
  641.8  0.931
  642.0  0.931
  642.2  0.931
  642.4  0.929
  642.6  0.927
  642.8  0.927
  643.0  0.926
  643.2  0.924
  643.4  0.923
  643.6  0.921
  643.8  0.920
  644.0  0.918
  644.2  0.916
  644.4  0.915
  644.6  0.913
  644.8  0.911
  645.0  0.909
  645.2  0.907
  645.4  0.905
  645.6  0.904
  645.8  0.901
  646.0  0.900
  646.2  0.897
  646.4  0.896
  646.6  0.894
  646.8  0.893
  647.0  0.891
  647.2  0.890
  647.4  0.889
  647.6  0.888
  647.8  0.886
  648.0  0.886
  648.2  0.885
  648.4  0.885
  648.6  0.884
  648.8  0.883
  649.0  0.883
  649.2  0.883
  649.4  0.882
  649.6  0.883
  649.8  0.883
  650.0  0.883
  650.2  0.883
  650.4  0.883
  650.6  0.884
  650.8  0.885
  651.0  0.887
  651.2  0.886
  651.4  0.888
  651.6  0.889
  651.8  0.890
  652.0  0.891
  652.2  0.892
  652.4  0.893
  652.6  0.894
  652.8  0.895
  653.0  0.896
  653.2  0.898
  653.4  0.898
  653.6  0.899
  653.8  0.901
  654.0  0.902
  654.2  0.903
  654.4  0.904
  654.6  0.905
  654.8  0.905
  655.0  0.905
  655.2  0.906
  655.4  0.907
  655.6  0.908
  655.8  0.908
  656.0  0.909
  656.2  0.909
  656.4  0.909
  656.6  0.910
  656.8  0.910
  657.0  0.910
  657.2  0.911
  657.4  0.911
  657.6  0.910
  657.8  0.911
  658.0  0.911
  658.2  0.911
  658.4  0.911
  658.6  0.911
  658.8  0.911
  659.0  0.910
  659.2  0.911
  659.4  0.912
  659.6  0.911
  659.8  0.912
  660.0  0.912
  660.2  0.912
  660.4  0.913
  660.6  0.913
  660.8  0.914
  661.0  0.915
  661.2  0.915
  661.4  0.916
  661.6  0.916
  661.8  0.917
  662.0  0.918
  662.2  0.918
  662.4  0.919
  662.6  0.921
  662.8  0.921
  663.0  0.922
  663.2  0.923
  663.4  0.925
  663.6  0.926
  663.8  0.926
  664.0  0.927
  664.2  0.929
  664.4  0.930
  664.6  0.931
  664.8  0.931
  665.0  0.932
  665.2  0.933
  665.4  0.934
  665.6  0.935
  665.8  0.936
  666.0  0.936
  666.2  0.936
  666.4  0.936
  666.6  0.937
  666.8  0.937
  667.0  0.937
  667.2  0.937
  667.4  0.936
  667.6  0.936
  667.8  0.936
  668.0  0.935
  668.2  0.934
  668.4  0.933
  668.6  0.932
  668.8  0.932
  669.0  0.931
  669.2  0.929
  669.4  0.929
  669.6  0.927
  669.8  0.926
  670.0  0.925
  670.2  0.923
  670.4  0.922
  670.6  0.920
  670.8  0.919
  671.0  0.918
  671.2  0.916
  671.4  0.915
  671.6  0.913
  671.8  0.912
  672.0  0.910
  672.2  0.909
  672.4  0.908
  672.6  0.907
  672.8  0.906
  673.0  0.906
  673.2  0.905
  673.4  0.904
  673.6  0.903
  673.8  0.902
  674.0  0.902
  674.2  0.902
  674.4  0.901
  674.6  0.902
  674.8  0.902
  675.0  0.902
  675.2  0.902
  675.4  0.903
  675.6  0.902
  675.8  0.902
  676.0  0.903
  676.2  0.904
  676.4  0.905
  676.6  0.907
  676.8  0.907
  677.0  0.908
  677.2  0.909
  677.4  0.909
  677.6  0.910
  677.8  0.911
  678.0  0.911
  678.2  0.913
  678.4  0.914
  678.6  0.915
  678.8  0.917
  679.0  0.918
  679.2  0.920
  679.4  0.920
  679.6  0.922
  679.8  0.922
  680.0  0.923
  680.2  0.924
  680.4  0.924
  680.6  0.925
  680.8  0.926
  681.0  0.927
  681.2  0.928
  681.4  0.928
  681.6  0.929
  681.8  0.929
  682.0  0.929
  682.2  0.929
  682.4  0.929
  682.6  0.930
  682.8  0.930
  683.0  0.930
  683.2  0.930
  683.4  0.929
  683.6  0.930
  683.8  0.930
  684.0  0.930
  684.2  0.929
  684.4  0.930
  684.6  0.929
  684.8  0.929
  685.0  0.930
  685.2  0.929
  685.4  0.929
  685.6  0.929
  685.8  0.929
  686.0  0.930
  686.2  0.929
  686.4  0.931
  686.6  0.930
  686.8  0.930
  687.0  0.931
  687.2  0.931
  687.4  0.932
  687.6  0.932
  687.8  0.932
  688.0  0.933
  688.2  0.933
  688.4  0.934
  688.6  0.934
  688.8  0.935
  689.0  0.935
  689.2  0.935
  689.4  0.936
  689.6  0.937
  689.8  0.937
  690.0  0.937
  690.2  0.938
  690.4  0.938
  690.6  0.938
  690.8  0.939
  691.0  0.939
  691.2  0.939
  691.4  0.939
  691.6  0.939
  691.8  0.939
  692.0  0.939
  692.2  0.940
  692.4  0.939
  692.6  0.940
  692.8  0.940
  693.0  0.940
  693.2  0.939
  693.4  0.939
  693.6  0.939
  693.8  0.938
  694.0  0.938
  694.2  0.938
  694.4  0.938
  694.6  0.937
  694.8  0.936
  695.0  0.935
  695.2  0.934
  695.4  0.933
  695.6  0.932
  695.8  0.930
  696.0  0.928
  696.2  0.925
  696.4  0.922
  696.6  0.918
  696.8  0.915
  697.0  0.910
  697.2  0.905
  697.4  0.897
  697.6  0.891
  697.8  0.882
  698.0  0.873
  698.2  0.863
  698.4  0.852
  698.6  0.839
  698.8  0.826
  699.0  0.811
  699.2  0.794
  699.4  0.778
  699.6  0.759
  699.8  0.740
  700.0  0.720
  700.2  0.699
  700.4  0.677
  700.6  0.654
  700.8  0.631
  701.0  0.607
  701.2  0.583
  701.4  0.560
  701.6  0.537
  701.8  0.513
  702.0  0.490
  702.2  0.468
  702.4  0.446
  702.6  0.424
  702.8  0.403
  703.0  0.383
  703.2  0.363
  703.4  0.344
  703.6  0.327
  703.8  0.309
  704.0  0.293
  704.2  0.278
  704.4  0.263
  704.6  0.249
  704.8  0.236
  705.0  0.224
  705.2  0.212
  705.4  0.202
  705.6  0.191
  705.8  0.182
  706.0  0.173
  706.2  0.164
  706.4  0.157
  706.6  0.149
  706.8  0.142
  707.0  0.136
  707.2  0.129
  707.4  0.124
  707.6  0.119
  707.8  0.114
  708.0  0.109
  708.2  0.105
  708.4  0.101
  708.6  0.097
  708.8  0.093
  709.0  0.090
  709.2  0.087
  709.4  0.084
  709.6  0.081
  709.8  0.078
  710.0  0.076
  710.2  0.073
  710.4  0.071
  710.6  0.069
  710.8  0.067
  711.0  0.065
  711.2  0.064
  711.4  0.062
  711.6  0.060
  711.8  0.059
  712.0  0.058
  712.2  0.056
  712.4  0.055
  712.6  0.054
  712.8  0.052
  713.0  0.051
  713.2  0.050
  713.4  0.049
  713.6  0.048
  713.8  0.047
  714.0  0.046
  714.2  0.045
  714.4  0.044
  714.6  0.043
  714.8  0.042
  715.0  0.040
  715.2  0.039
  715.4  0.038
  715.6  0.037
  715.8  0.036
  716.0  0.035
  716.2  0.034
  716.4  0.033
  716.6  0.031
  716.8  0.030
  717.0  0.029
  717.2  0.028
  717.4  0.027
  717.6  0.025
  717.8  0.024
  718.0  0.023
  718.2  0.022
  718.4  0.021
  718.6  0.020
  718.8  0.019
  719.0  0.018
  719.2  0.017
  719.4  0.016
  719.6  0.015
  719.8  0.014
  720.0  0.014
  720.2  0.013
  720.4  0.012
  720.6  0.011
  720.8  0.011
  721.0  0.010
  721.2  0.009
  721.4  0.009
  721.6  0.008
  721.8  0.008
  722.0  0.007
  722.2  0.007
  722.4  0.007
  722.6  0.006
  722.8  0.006
  723.0  0.006
  723.2  0.005
  723.4  0.005
  723.6  0.005
  723.8  0.004
  724.0  0.004
  724.2  0.004
  724.4  0.004
  724.6  0.003
  724.8  0.003
  725.0  0.003
  725.2  0.003
  725.4  0.003
  725.6  0.003
  725.8  0.003
  726.0  0.003
  726.2  0.002
  726.4  0.002
  726.6  0.002
  726.8  0.002
  727.0  0.002
  727.2  0.002
  727.4  0.002
  727.6  0.002
  727.8  0.002
  728.0  0.002
  728.2  0.002
  728.4  0.002
  728.6  0.002
  728.8  0.001
  729.0  0.001
  729.2  0.001
  729.4  0.001
  729.6  0.000
  729.8  0.000
  730.0  0.000
